Temperature    Energy         Energy2        Magnetization  Magnetization2 Heat Capacity  Susceptibility 
2.1            -1.6620339     2.7635333      0.8687591      0.75528469     0.96054664     0.92970159     
2.11           -1.6523055     2.7313401      0.8630057      0.74540903     0.99172664     1.0751943      
2.12           -1.6422053     2.69812        0.85701086     0.73515702     1.0267627      1.1706853      
2.13           -1.6316888     2.6637519      0.85026977     0.72376824     1.066172       1.3682633      
2.14           -1.6207862     2.6283575      0.8432166      0.71194643     1.1081252      1.5681631      
2.15           -1.6098912     2.5932101      0.83584151     0.69971595     1.1373109      1.8166236      
2.16           -1.597985      2.5550938      0.82724339     0.68563472     1.1866191      2.1718297      
2.17           -1.5862503     2.517784       0.81896001     0.67212729     1.2186205      2.3753325      
2.18           -1.5731518     2.4765203      0.8074465      0.65403473     1.2981395      3.4098752      
2.19           -1.5595296     2.4339476      0.79609599     0.6361324      1.3624485      3.885338       
2.2            -1.5460028     2.3920379      0.78383215     0.617493       1.4230524      5.0729876      
2.21           -1.5315618     2.3477276      0.76965367     0.59630357     1.5080757      6.412875       
2.22           -1.5160933     2.3007598      0.75136638     0.57080083     1.6222652      10.134143      
2.23           -1.5015669     2.2569725      0.73790761     0.55090482     1.6427795      10.327271      
2.24           -1.4839961     2.2046802      0.7154369      0.51997625     1.7475861      13.060111      
2.25           -1.4631024     2.1434275      0.6751759      0.47264771     1.9619282      26.856352      
2.26           -1.4393032     2.0747385      0.6201204      0.41264001     2.2166764      44.746251      
2.27           -1.4210562     2.0225598      0.59316794     0.38035428     2.2071305      45.20788       
2.28           -1.3983077     1.9585059      0.54273594     0.3285129      2.2447435      53.606218      
2.29           -1.3779827     1.902006       0.49818576     0.28554717     2.1759055      58.728919      
2.3            -1.3544156     1.8374855      0.43181905     0.22727744     2.0715586      63.876135      
2.31           -1.3367403     1.7898371      0.39783415     0.19818335     1.9986003      62.199496      
2.32           -1.3169524     1.7371132      0.3562548      0.16327168     1.839047       56.411686      
2.33           -1.2992771     1.6907028      0.31451635     0.13302604     1.7120188      52.695193      
2.34           -1.282905      1.6482201      0.28053792     0.10860012     1.5613576      45.997829      
2.35           -1.2685315     1.6114304      0.24891683     0.089322575    1.4721492      41.91777       
2.36           -1.2530613     1.5722521      0.22716923     0.074449863    1.3504957      34.846783      
2.37           -1.2410677     1.5422853      0.21357319     0.066728664    1.3050513      32.073655      
2.38           -1.2282574     1.5105635      0.19606682     0.057143576    1.2375753      28.287797      
2.39           -1.2157185     1.479863       0.17740004     0.047531868    1.1920692      24.192444      
2.4            -1.204198      1.451902       0.16698279     0.041677892    1.1306899      20.691958      
